Data from HRC08061_06.txt Node
Date: Wed May 08 15:09:12 AWST 2024
User: mrg
Spectrometer: HR+C0806
Trigger mode: 4
Integration Time (sec): 1.000000E-1
Scans to average: 1
Electric dark correction enabled: true
Nonlinearity correction enabled: false
Boxcar width: 0
XAxis mode: Wavelengths
Number of Pixels in Spectrum: 2048
>>>>>Begin Spectral Data<<<<<
188.978	-12.56
189.45	-12.56
189.922	-12.56
190.394	-22.56
190.866	-21.56
191.338	4.44
191.81	9.44
192.282	14.44
192.753	1.44
193.225	1.44
193.697	2.44
194.169	-6.56
194.641	1.44
195.112	-2.56
195.584	8.44
196.056	5.44
196.527	-3.56
196.999	20.44
197.471	-7.56
197.942	2.44
198.414	20.44
198.885	8.44
199.357	-0.56
199.828	7.44
200.3	3.44
200.771	7.44
201.243	1.44
201.714	22.44
202.186	7.44
202.657	-10.56
203.128	7.44
203.6	-6.56
204.071	-3.56
204.542	13.44
205.013	-4.56
205.485	-5.56
205.956	7.44
206.427	-4.56
206.898	-1.56
207.369	-5.56
207.84	-15.56
208.311	-4.56
208.782	-18.56
209.254	10.44
209.725	-1.56
210.196	-10.56
210.666	8.44
211.137	-6.56
211.608	-9.56
212.079	-6.56
212.55	1.44
213.021	14.44
213.492	1.44
213.963	-0.56
214.433	0.44
214.904	-6.56
215.375	-13.56
215.846	15.44
216.316	19.44
216.787	-1.56
217.258	-7.56
217.728	-0.56
218.199	7.44
218.669	-26.56
219.14	-7.56
219.61	-3.56
220.081	9.44
220.551	6.44
221.022	8.44
221.492	10.44
221.963	2.44
222.433	-2.56
222.903	-0.56
223.374	12.44
223.844	1.44
224.314	-1.56
224.785	-17.56
225.255	-6.56
225.725	-9.56
226.195	-19.56
226.665	6.44
227.136	8.44
227.606	11.44
228.076	-6.56
228.546	-3.56
229.016	-4.56
229.486	-6.56
229.956	11.44
230.426	9.44
230.896	-6.56
231.366	-8.56
231.836	-0.56
232.306	8.44
232.776	-26.56
233.245	0.44
233.715	11.44
234.185	-10.56
234.655	-10.56
235.125	2.44
235.594	6.44
236.064	0.44
236.534	-4.56
237.003	-14.56
237.473	14.44
237.943	-10.56
238.412	-12.56
238.882	3.44
239.351	16.44
239.821	-11.56
240.29	4.44
240.76	0.44
241.229	18.44
241.699	-12.56
242.168	7.44
242.638	10.44
243.107	0.44
243.576	2.44
244.046	1.44
244.515	2.44
244.984	-1.56
245.453	-14.56
245.923	-3.56
246.392	8.44
246.861	-7.56
247.33	-2.56
247.799	3.44
248.268	-7.56
248.737	-16.56
249.206	15.44
249.675	7.44
250.144	4.44
250.613	-3.56
251.082	-2.56
251.551	11.44
252.02	-3.56
252.489	1.44
252.958	8.44
253.427	-4.56
253.896	-7.56
254.364	3.44
254.833	13.44
255.302	3.44
255.771	-9.56
256.239	9.44
256.708	7.44
257.177	13.44
257.645	-10.56
258.114	9.44
258.583	11.44
259.051	2.44
259.52	-9.56
259.988	0.44
260.457	8.44
260.925	-14.56
261.394	-1.56
261.862	4.44
262.33	-2.56
262.799	-0.56
263.267	6.44
263.735	10.44
264.204	2.44
264.672	-25.56
265.14	9.44
265.608	17.44
266.077	-6.56
266.545	6.44
267.013	13.44
267.481	7.44
267.949	-0.56
268.417	1.44
268.885	18.44
269.353	8.44
269.822	1.44
270.289	1.44
270.757	11.44
271.225	12.44
271.693	4.44
272.161	10.44
272.629	-1.56
273.097	-15.56
273.565	0.44
274.033	5.44
274.5	8.44
274.968	-11.56
275.436	-0.56
275.904	9.44
276.371	5.44
276.839	-4.56
277.307	7.44
277.774	-13.56
278.242	5.44
278.709	-25.56
279.177	9.44
279.644	4.44
280.112	-8.56
280.579	-14.56
281.047	2.44
281.514	-13.56
281.982	-14.56
282.449	9.44
282.916	2.44
283.384	3.44
283.851	-0.56
284.318	-8.56
284.786	13.44
285.253	-11.56
285.72	-5.56
286.187	7.44
286.654	-4.56
287.122	-14.56
287.589	9.44
288.056	1.44
288.523	-3.56
288.99	-13.56
289.457	0.44
289.924	8.44
290.391	-6.56
290.858	-3.56
291.325	14.44
291.792	-3.56
292.259	5.44
292.725	-5.56
293.192	-5.56
293.659	10.44
294.126	-6.56
294.593	6.44
295.059	17.44
295.526	-7.56
295.993	0.44
296.459	3.44
296.926	-0.56
297.393	-0.56
297.859	-15.56
298.326	-0.56
298.792	-0.56
299.259	2.44
299.725	-3.56
300.192	3.44
300.658	3.44
301.125	-7.56
301.591	-10.56
302.058	10.44
302.524	1.44
302.99	-7.56
303.457	9.44
303.923	6.44
304.389	1.44
304.855	3.44
305.322	-1.56
305.788	-12.56
306.254	-7.56
306.72	-0.56
307.186	0.44
307.652	4.44
308.118	5.44
308.584	-12.56
309.05	-0.56
309.516	11.44
309.982	5.44
310.448	5.44
310.914	-3.56
311.38	-1.56
311.846	-0.56
312.312	-1.56
312.778	20.44
313.244	-11.56
313.709	4.44
314.175	2.44
314.641	-5.56
315.107	-1.56
315.572	1.44
316.038	7.44
316.504	-0.56
316.969	4.44
317.435	-0.56
317.9	12.44
318.366	19.44
318.831	11.44
319.297	5.44
319.762	2.44
320.228	-8.56
320.693	-11.56
321.159	13.44
321.624	7.44
322.089	-2.56
322.555	4.44
323.02	12.44
323.485	1.44
323.951	-11.56
324.416	1.44
324.881	3.44
325.346	-6.56
325.811	11.44
326.276	2.44
326.742	5.44
327.207	-8.56
327.672	-5.56
328.137	9.44
328.602	-3.56
329.067	-21.56
329.532	-6.56
329.997	-2.56
330.462	0.44
330.926	-3.56
331.391	2.44
331.856	9.44
332.321	14.44
332.786	10.44
333.251	8.44
333.715	7.44
334.18	5.44
334.645	13.44
335.109	-0.56
335.574	13.44
336.039	2.44
336.503	-4.56
336.968	-7.56
337.433	4.44
337.897	-5.56
338.362	8.44
338.826	7.44
339.291	6.44
339.755	4.44
340.219	-0.56
340.684	6.44
341.148	-18.56
341.612	2.44
342.077	11.44
342.541	-2.56
343.005	-7.56
343.47	0.44
343.934	7.44
344.398	-3.56
344.862	-5.56
345.326	-2.56
345.79	54.44
346.255	-23.56
346.719	2.44
347.183	14.44
347.647	0.44
348.111	-12.56
348.575	-12.56
349.039	5.44
349.503	-2.56
349.967	-16.56
350.43	22.44
350.894	1.44
351.358	1.44
351.822	5.44
352.286	5.44
352.749	1.44
353.213	4.44
353.677	-11.56
354.141	21.44
354.604	5.44
355.068	2.44
355.532	-0.56
355.995	8.44
356.459	12.44
356.922	0.44
357.386	-6.56
357.849	-3.56
358.313	13.44
358.776	-16.56
359.24	-2.56
359.703	11.44
360.166	-3.56
360.63	1.44
361.093	-6.56
361.556	-17.56
362.02	-1.56
362.483	-0.56
362.946	14.44
363.409	-1.56
363.873	7.44
364.336	11.44
364.799	17.44
365.262	-2.56
365.725	5.44
366.188	8.44
366.651	8.44
367.114	-0.56
367.577	5.44
368.04	10.44
368.503	11.44
368.966	-3.56
369.429	4.44
369.892	17.44
370.355	-2.56
370.817	-6.56
371.28	24.44
371.743	4.44
372.206	-12.56
372.668	28.44
373.131	0.44
373.594	6.44
374.056	-14.56
374.519	2.44
374.982	10.44
375.444	-0.56
375.907	-0.56
376.369	6.44
376.832	7.44
377.294	1.44
377.757	-6.56
378.219	4.44
378.682	1.44
379.144	-0.56
379.606	-12.56
380.069	17.44
380.531	3.44
380.993	4.44
381.455	5.44
381.918	16.44
382.38	-8.56
382.842	-15.56
383.304	-1.56
383.766	11.44
384.229	-4.56
384.691	11.44
385.153	11.44
385.615	1.44
386.077	-4.56
386.539	2.44
387.001	-4.56
387.463	-1.56
387.925	-24.56
388.386	-2.56
388.848	10.44
389.31	0.44
389.772	-17.56
390.234	4.44
390.696	4.44
391.157	2.44
391.619	-3.56
392.081	-8.56
392.542	15.44
393.004	-7.56
393.466	-0.56
393.927	11.44
394.389	-4.56
394.85	-11.56
395.312	6.44
395.773	18.44
396.235	-10.56
396.696	-5.56
397.158	-4.56
397.619	12.44
398.08	-12.56
398.542	-1.56
399.003	-1.56
399.464	15.44
399.926	-16.56
400.387	-1.56
400.848	-3.56
401.309	3.44
401.771	-9.56
402.232	5.44
402.693	14.44
403.154	11.44
403.615	9.44
404.076	5.44
404.537	5.44
404.998	5.44
405.459	-7.56
405.92	6.44
406.381	14.44
406.842	4.44
407.303	2.44
407.764	-4.56
408.225	15.44
408.685	-30.56
409.146	11.44
409.607	8.44
410.068	3.44
410.528	3.44
410.989	0.44
411.45	17.44
411.91	-13.56
412.371	7.44
412.832	7.44
413.292	-3.56
413.753	-1.56
414.213	5.44
414.674	-6.56
415.134	-5.56
415.595	-1.56
416.055	-21.56
416.515	19.44
416.976	-2.56
417.436	-5.56
417.896	18.44
418.357	8.44
418.817	-2.56
419.277	1.44
419.738	14.44
420.198	10.44
420.658	1.44
421.118	-1.56
421.578	-1.56
422.038	-1.56
422.498	-10.56
422.958	0.44
423.418	3.44
423.878	-6.56
424.338	7.44
424.798	22.44
425.258	5.44
425.718	-2.56
426.178	5.44
426.638	18.44
427.098	6.44
427.558	-5.56
428.017	10.44
428.477	-3.56
428.937	-14.56
429.396	-9.56
429.856	5.44
430.316	22.44
430.775	7.44
431.235	-2.56
431.695	22.44
432.154	2.44
432.614	0.44
433.073	-4.56
433.533	9.44
433.992	5.44
434.452	-4.56
434.911	7.44
435.37	0.44
435.83	-11.56
436.289	-18.56
436.748	2.44
437.208	13.44
437.667	-3.56
438.126	-8.56
438.585	-5.56
439.045	4.44
439.504	-5.56
439.963	9.44
440.422	23.44
440.881	11.44
441.34	-13.56
441.799	-4.56
442.258	14.44
442.717	-1.56
443.176	-11.56
443.635	4.44
444.094	3.44
444.553	-18.56
445.012	5.44
445.47	5.44
445.929	2.44
446.388	-13.56
446.847	-2.56
447.306	13.44
447.764	6.44
448.223	-5.56
448.682	5.44
449.14	17.44
449.599	17.44
450.057	-11.56
450.516	-3.56
450.975	-0.56
451.433	7.44
451.892	5.44
452.35	-3.56
452.808	1.44
453.267	-13.56
453.725	-1.56
454.184	11.44
454.642	-3.56
455.1	5.44
455.559	-0.56
456.017	2.44
456.475	29.44
456.933	2.44
457.391	-2.56
457.85	11.44
458.308	-20.56
458.766	13.44
459.224	7.44
459.682	3.44
460.14	-6.56
460.598	2.44
461.056	19.44
461.514	7.44
461.972	-12.56
462.43	-5.56
462.888	17.44
463.346	14.44
463.804	11.44
464.261	13.44
464.719	-4.56
465.177	-2.56
465.635	-3.56
466.092	21.44
466.55	6.44
467.008	-2.56
467.465	23.44
467.923	3.44
468.381	-1.56
468.838	-7.56
469.296	12.44
469.753	0.44
470.211	5.44
470.668	14.44
471.126	26.44
471.583	0.44
472.04	5.44
472.498	-5.56
472.955	16.44
473.412	15.44
473.87	2.44
474.327	-7.56
474.784	-9.56
475.241	4.44
475.699	1.44
476.156	-14.56
476.613	15.44
477.07	-8.56
477.527	-6.56
477.984	-6.56
478.441	2.44
478.898	-7.56
479.355	-6.56
479.812	-12.56
480.269	-1.56
480.726	-1.56
481.183	0.44
481.64	19.44
482.097	1.44
482.553	-8.56
483.01	-5.56
483.467	-4.56
483.924	10.44
484.38	-0.56
484.837	15.44
485.294	0.44
485.75	-13.56
486.207	-13.56
486.664	8.44
487.12	1.44
487.577	-4.56
488.033	-7.56
488.49	3.44
488.946	9.44
489.403	2.44
489.859	15.44
490.315	22.44
490.772	-12.56
491.228	8.44
491.684	5.44
492.141	-0.56
492.597	-1.56
493.053	-7.56
493.509	9.44
493.965	-2.56
494.422	2.44
494.878	3.44
495.334	1.44
495.79	-0.56
496.246	0.44
496.702	5.44
497.158	9.44
497.614	-6.56
498.07	-4.56
498.526	11.44
498.982	8.44
499.438	-13.56
499.894	-1.56
500.349	1.44
500.805	7.44
501.261	1.44
501.717	5.44
502.172	9.44
502.628	-2.56
503.084	-9.56
503.54	14.44
503.995	16.44
504.451	3.44
504.906	8.44
505.362	-5.56
505.817	13.44
506.273	10.44
506.728	-8.56
507.184	0.44
507.639	-12.56
508.095	1.44
508.55	7.44
509.005	21.44
509.461	0.44
509.916	-12.56
510.371	4.44
510.827	1.44
511.282	4.44
511.737	-3.56
512.192	11.44
512.647	6.44
513.102	-9.56
513.557	9.44
514.013	10.44
514.468	6.44
514.923	-6.56
515.378	1.44
515.833	6.44
516.288	-4.56
516.742	1.44
517.197	13.44
517.652	27.44
518.107	8.44
518.562	6.44
519.017	16.44
519.471	15.44
519.926	-15.56
520.381	-1.56
520.836	12.44
521.29	-10.56
521.745	-12.56
522.199	-6.56
522.654	16.44
523.109	-6.56
523.563	6.44
524.018	14.44
524.472	-7.56
524.927	6.44
525.381	0.44
525.835	2.44
526.29	-0.56
526.744	-6.56
527.199	2.44
527.653	3.44
528.107	-2.56
528.561	1.44
529.016	-11.56
529.47	6.44
529.924	1.44
530.378	-2.56
530.832	17.44
531.286	10.44
531.741	-5.56
532.195	9.44
532.649	4.44
533.103	5.44
533.557	-5.56
534.011	-7.56
534.464	-6.56
534.918	-1.56
535.372	-5.56
535.826	11.44
536.28	8.44
536.734	-5.56
537.187	1.44
537.641	22.44
538.095	-2.56
538.549	-3.56
539.002	2.44
539.456	15.44
539.91	3.44
540.363	-0.56
540.817	10.44
541.27	19.44
541.724	10.44
542.177	-4.56
542.631	13.44
543.084	15.44
543.538	7.44
543.991	10.44
544.444	7.44
544.898	14.44
545.351	8.44
545.804	5.44
546.258	35.44
546.711	20.44
547.164	11.44
547.617	11.44
548.07	31.44
548.524	7.44
548.977	20.44
549.43	26.44
549.883	40.44
550.336	10.44
550.789	25.44
551.242	45.44
551.695	50.44
552.148	25.44
552.601	42.44
553.054	38.44
553.506	40.44
553.959	47.44
554.412	59.44
554.865	68.44
555.318	51.44
555.77	51.44
556.223	66.44
556.676	80.44
557.128	76.44
557.581	71.44
558.033	102.44
558.486	109.44
558.939	119.44
559.391	162.44
559.844	182.44
560.296	233.44
560.749	304.44
561.201	404.44
561.653	534.44
562.106	728.44
562.558	1033.44
563.01	1449.44
563.463	2094.44
563.915	2892.44
564.367	4050.44
564.819	5477.44
565.272	6843.44
565.724	8308.44
566.176	9621.44
566.628	10863.44
567.08	11689.44
567.532	12469.44
567.984	13213.44
568.436	13572.44
568.888	13881.44
569.34	14153.44
569.792	14349.44
570.244	14552.44
570.696	14651.44
571.148	14753.44
571.599	14807.44
572.051	14841.44
572.503	14935.44
572.955	14979.44
573.407	14921.44
573.858	14916.44
574.31	14864.44
574.762	14909.44
575.213	14867.44
575.665	14706.44
576.116	14629.44
576.568	14441.44
577.019	14262.44
577.471	13835.44
577.922	13363.44
578.374	12607.44
578.825	11680.44
579.277	10931.44
579.728	9519.44
580.179	8165.44
580.631	6663.44
581.082	5360.44
581.533	4224.44
581.984	3217.44
582.436	2376.44
582.887	1664.44
583.338	1268.44
583.789	912.44
584.24	659.44
584.691	482.44
585.142	368.44
585.593	279.44
586.044	192.44
586.495	158.44
586.946	159.44
587.397	107.44
587.848	76.44
588.299	76.44
588.75	65.44
589.201	30.44
589.651	36.44
590.102	21.44
590.553	30.44
591.004	37.44
591.454	17.44
591.905	35.44
592.356	13.44
592.806	18.44
593.257	23.44
593.707	19.44
594.158	13.44
594.608	10.44
595.059	15.44
595.509	21.44
595.96	-5.56
596.41	38.44
596.861	21.44
597.311	13.44
597.761	-9.56
598.212	-2.56
598.662	15.44
599.112	5.44
599.562	13.44
600.012	-4.56
600.463	20.44
600.913	-5.56
601.363	2.44
601.813	1.44
602.263	5.44
602.713	-14.56
603.163	-5.56
603.613	17.44
604.063	18.44
604.513	9.44
604.963	-2.56
605.413	21.44
605.863	-1.56
606.312	2.44
606.762	-9.56
607.212	17.44
607.662	-3.56
608.112	7.44
608.561	5.44
609.011	0.44
609.461	-2.56
609.91	13.44
610.36	7.44
610.809	3.44
611.259	-2.56
611.708	3.44
612.158	14.44
612.607	-8.56
613.057	2.44
613.506	0.44
613.956	18.44
614.405	-12.56
614.854	-2.56
615.304	11.44
615.753	-1.56
616.202	-11.56
616.651	0.44
617.101	24.44
617.55	18.44
617.999	-14.56
618.448	-5.56
618.897	-2.56
619.346	-8.56
619.795	-13.56
620.244	-10.56
620.693	9.44
621.142	-13.56
621.591	-9.56
622.04	7.44
622.489	3.44
622.938	-7.56
623.387	3.44
623.836	-3.56
624.284	4.44
624.733	-18.56
625.182	-3.56
625.631	-0.56
626.079	-24.56
626.528	9.44
626.977	3.44
627.425	15.44
627.874	-25.56
628.322	1.44
628.771	2.44
629.219	-17.56
629.668	-11.56
630.116	-4.56
630.565	0.44
631.013	7.44
631.462	-11.56
631.91	-12.56
632.358	-4.56
632.806	-2.56
633.255	-2.56
633.703	-4.56
634.151	6.44
634.599	-2.56
635.048	-1.56
635.496	-11.56
635.944	0.44
636.392	-16.56
636.84	-17.56
637.288	-9.56
637.736	0.44
638.184	-6.56
638.632	-4.56
639.08	2.44
639.528	1.44
639.976	-0.56
640.423	-6.56
640.871	0.44
641.319	-13.56
641.767	-9.56
642.215	15.44
642.662	6.44
643.11	-14.56
643.558	0.44
644.005	7.44
644.453	-4.56
644.9	11.44
645.348	9.44
645.796	2.44
646.243	-12.56
646.691	2.44
647.138	10.44
647.585	-20.56
648.033	-5.56
648.48	-0.56
648.928	2.44
649.375	2.44
649.822	0.44
650.269	-3.56
650.717	11.44
651.164	3.44
651.611	-8.56
652.058	10.44
652.505	14.44
652.952	-3.56
653.4	-10.56
653.847	-8.56
654.294	7.44
654.741	-9.56
655.188	-14.56
655.635	-1.56
656.081	3.44
656.528	-11.56
656.975	8.44
657.422	2.44
657.869	8.44
658.316	-11.56
658.762	10.44
659.209	1.44
659.656	-12.56
660.103	-13.56
660.549	4.44
660.996	1.44
661.443	-10.56
661.889	23.44
662.336	4.44
662.782	-1.56
663.229	-14.56
663.675	-3.56
664.122	9.44
664.568	4.44
665.014	-3.56
665.461	4.44
665.907	-2.56
666.353	-12.56
666.8	-2.56
667.246	10.44
667.692	21.44
668.139	10.44
668.585	-5.56
669.031	23.44
669.477	-7.56
669.923	-2.56
670.369	-4.56
670.815	-6.56
671.261	-6.56
671.707	-1.56
672.153	-7.56
672.599	4.44
673.045	-22.56
673.491	-10.56
673.937	16.44
674.383	2.44
674.829	2.44
675.274	-3.56
675.72	15.44
676.166	4.44
676.612	-7.56
677.057	13.44
677.503	15.44
677.948	-0.56
678.394	-7.56
678.84	12.44
679.285	5.44
679.731	-5.56
680.176	-1.56
680.622	0.44
681.067	-3.56
681.513	-9.56
681.958	-9.56
682.403	16.44
682.849	3.44
683.294	9.44
683.739	5.44
684.184	1.44
684.63	-2.56
685.075	-7.56
685.52	-18.56
685.965	-1.56
686.41	1.44
686.855	5.44
687.301	0.44
687.746	4.44
688.191	-29.56
688.636	-1.56
689.081	2.44
689.526	7.44
689.97	-5.56
690.415	0.44
690.86	15.44
691.305	3.44
691.75	-2.56
692.195	-12.56
692.639	-9.56
693.084	-23.56
693.529	-0.56
693.973	-6.56
694.418	-10.56
694.863	-17.56
695.307	-5.56
695.752	14.44
696.196	-13.56
696.641	-12.56
697.085	28.44
697.53	16.44
697.974	-7.56
698.419	-10.56
698.863	10.44
699.307	1.44
699.752	-4.56
700.196	-14.56
700.64	7.44
701.085	-8.56
701.529	-4.56
701.973	4.44
702.417	4.44
702.861	-8.56
703.305	-12.56
703.749	1.44
704.193	17.44
704.638	2.44
705.082	1.44
705.526	-0.56
705.969	-15.56
706.413	-13.56
706.857	0.44
707.301	17.44
707.745	-6.56
708.189	-7.56
708.633	1.44
709.076	-15.56
709.52	-9.56
709.964	-6.56
710.407	5.44
710.851	2.44
711.295	-12.56
711.738	-12.56
712.182	-3.56
712.626	-7.56
713.069	4.44
713.513	-9.56
713.956	-20.56
714.399	-12.56
714.843	6.44
715.286	2.44
715.73	10.44
716.173	9.44
716.616	-5.56
717.06	-7.56
717.503	10.44
717.946	-3.56
718.389	-5.56
718.832	16.44
719.276	-6.56
719.719	-10.56
720.162	-4.56
720.605	1.44
721.048	2.44
721.491	2.44
721.934	-3.56
722.377	16.44
722.82	8.44
723.263	2.44
723.706	12.44
724.148	-6.56
724.591	-31.56
725.034	11.44
725.477	-0.56
725.92	17.44
726.362	-4.56
726.805	-7.56
727.248	6.44
727.69	-10.56
728.133	2.44
728.575	2.44
729.018	11.44
729.46	2.44
729.903	-9.56
730.345	-3.56
730.788	-13.56
731.23	-0.56
731.673	3.44
732.115	16.44
732.557	-21.56
733	-6.56
733.442	-15.56
733.884	-8.56
734.327	-11.56
734.769	-1.56
735.211	3.44
735.653	7.44
736.095	-1.56
736.537	-9.56
736.979	1.44
737.421	-4.56
737.863	3.44
738.305	-9.56
738.747	3.44
739.189	17.44
739.631	-4.56
740.073	-11.56
740.515	9.44
740.957	-6.56
741.399	-12.56
741.84	1.44
742.282	2.44
742.724	-12.56
743.166	-10.56
743.607	-8.56
744.049	-0.56
744.49	-6.56
744.932	-0.56
745.374	9.44
745.815	0.44
746.257	-13.56
746.698	-9.56
747.14	-11.56
747.581	7.44
748.022	7.44
748.464	8.44
748.905	3.44
749.346	-4.56
749.788	3.44
750.229	-10.56
750.67	-0.56
751.111	7.44
751.553	-5.56
751.994	-8.56
752.435	-5.56
752.876	-8.56
753.317	9.44
753.758	7.44
754.199	-23.56
754.64	-1.56
755.081	24.44
755.522	-1.56
755.963	-8.56
756.404	-6.56
756.845	-8.56
757.285	-9.56
757.726	-7.56
758.167	14.44
758.608	12.44
759.048	-11.56
759.489	-6.56
759.93	14.44
760.37	-0.56
760.811	-1.56
761.252	17.44
761.692	8.44
762.133	13.44
762.573	6.44
763.014	0.44
763.454	16.44
763.895	-6.56
764.335	-4.56
764.775	1.44
765.216	2.44
765.656	-5.56
766.096	-0.56
766.536	3.44
766.977	6.44
767.417	-12.56
767.857	-2.56
768.297	17.44
768.737	7.44
769.177	-17.56
769.617	-1.56
770.058	-7.56
770.498	2.44
770.938	-0.56
771.377	2.44
771.817	14.44
772.257	-5.56
772.697	-20.56
773.137	-2.56
773.577	14.44
774.017	4.44
774.456	-8.56
774.896	10.44
775.336	6.44
775.776	-11.56
776.215	-11.56
776.655	-1.56
777.094	19.44
777.534	-6.56
777.974	10.44
778.413	0.44
778.853	-6.56
779.292	-7.56
779.731	9.44
780.171	15.44
780.61	0.44
781.05	7.44
781.489	11.44
781.928	5.44
782.368	4.44
782.807	-6.56
783.246	-4.56
783.685	3.44
784.124	-21.56
784.564	11.44
785.003	13.44
785.442	-14.56
785.881	-5.56
786.32	6.44
786.759	18.44
787.198	0.44
787.637	1.44
788.076	1.44
788.515	0.44
788.953	-1.56
789.392	-0.56
789.831	18.44
790.27	5.44
790.709	-10.56
791.147	-6.56
791.586	-1.56
792.025	-24.56
792.463	-14.56
792.902	14.44
793.341	9.44
793.779	-4.56
794.218	-8.56
794.656	12.44
795.095	20.44
795.533	-4.56
795.971	1.44
796.41	2.44
796.848	1.44
797.287	5.44
797.725	8.44
798.163	4.44
798.601	3.44
799.04	-2.56
799.478	16.44
799.916	11.44
800.354	-22.56
800.792	5.44
801.23	-6.56
801.669	-2.56
802.107	0.44
802.545	-7.56
802.983	16.44
803.421	3.44
803.858	-3.56
804.296	12.44
804.734	0.44
805.172	14.44
805.61	-7.56
806.048	0.44
806.485	7.44
806.923	-5.56
807.361	11.44
807.799	-4.56
808.236	12.44
808.674	-5.56
809.112	0.44
809.549	-5.56
809.987	8.44
810.424	-1.56
810.862	-0.56
811.299	15.44
811.737	-8.56
812.174	-4.56
812.611	21.44
813.049	8.44
813.486	-13.56
813.923	-10.56
814.361	3.44
814.798	1.44
815.235	1.44
815.672	-0.56
816.109	3.44
816.547	3.44
816.984	9.44
817.421	9.44
817.858	6.44
818.295	-9.56
818.732	-7.56
819.169	13.44
819.606	-1.56
820.043	-1.56
820.48	6.44
820.916	21.44
821.353	-2.56
821.79	-17.56
822.227	-0.56
822.664	-2.56
823.1	-2.56
823.537	-7.56
823.974	14.44
824.41	3.44
824.847	14.44
825.283	14.44
825.72	14.44
826.157	0.44
826.593	-1.56
827.03	15.44
827.466	4.44
827.902	5.44
828.339	-2.56
828.775	0.44
829.211	4.44
829.648	8.44
830.084	-0.56
830.52	-17.56
830.957	-13.56
831.393	-4.56
831.829	1.44
832.265	11.44
832.701	-9.56
833.137	-2.56
833.573	10.44
834.009	23.44
834.445	0.44
834.881	-8.56
835.317	18.44
835.753	14.44
836.189	-9.56
836.625	-2.56
837.061	5.44
837.497	16.44
837.932	0.44
838.368	4.44
838.804	4.44
839.239	-1.56
839.675	-8.56
840.111	6.44
840.546	2.44
840.982	-2.56
841.418	2.44
841.853	8.44
842.289	18.44
842.724	-5.56
843.159	-4.56
843.595	29.44
844.03	3.44
844.466	-13.56
844.901	-4.56
845.336	5.44
845.772	-7.56
846.207	2.44
846.642	-8.56
847.077	6.44
847.512	-7.56
847.948	0.44
848.383	9.44
848.818	-3.56
849.253	-1.56
849.688	2.44
850.123	8.44
850.558	6.44
850.993	3.44
851.428	2.44
851.863	12.44
852.297	1.44
852.732	-7.56
853.167	-12.56
853.602	-7.56
854.037	-7.56
854.471	-5.56
854.906	14.44
855.341	18.44
855.775	5.44
856.21	7.44
856.645	13.44
857.079	-9.56
857.514	-2.56
857.948	3.44
858.383	6.44
858.817	-16.56
859.251	44.44
859.686	-1.56
860.12	17.44
860.555	-9.56
860.989	1.44
861.423	10.44
861.857	-4.56
862.292	-14.56
862.726	-11.56
863.16	1.44
863.594	0.44
864.028	-2.56
864.462	-3.56
864.896	21.44
865.33	18.44
865.764	-4.56
866.198	-2.56
866.632	-0.56
867.066	-14.56
867.5	-4.56
867.934	15.44
868.368	8.44
868.802	-13.56
869.235	-6.56
869.669	19.44
870.103	-5.56
870.537	-26.56
870.97	12.44
871.404	11.44
871.837	-1.56
872.271	-11.56
872.705	-2.56
873.138	4.44
873.572	-4.56
874.005	3.44
874.438	18.44
874.872	4.44
875.305	-15.56
875.739	12.44
876.172	-2.56
876.605	5.44
877.039	5.44
877.472	4.44
877.905	15.44
878.338	-2.56
878.771	-6.56
879.204	-5.56
879.638	7.44
880.071	0.44
880.504	-1.56
880.937	6.44
881.37	5.44
881.803	-6.56
882.236	7.44
882.668	13.44
883.101	-4.56
883.534	-10.56
883.967	6.44
884.4	5.44
884.833	5.44
885.265	-2.56
885.698	-13.56
886.131	6.44
886.563	3.44
886.996	7.44
887.429	7.44
887.861	-0.56
888.294	-15.56
888.726	0.44
889.159	-1.56
889.591	17.44
890.024	-5.56
890.456	19.44
890.888	1.44
891.321	-13.56
891.753	-3.56
892.185	15.44
892.618	10.44
893.05	-7.56
893.482	-2.56
893.914	8.44
894.346	1.44
894.778	-9.56
895.211	-1.56
895.643	2.44
896.075	3.44
896.507	1.44
896.939	5.44
897.371	13.44
897.802	-9.56
898.234	-3.56
898.666	-4.56
899.098	22.44
899.53	-11.56
899.962	9.44
900.393	13.44
900.825	2.44
901.257	2.44
901.688	15.44
902.12	8.44
902.552	-4.56
902.983	-2.56
903.415	9.44
903.846	16.44
904.278	-7.56
904.709	-0.56
905.141	0.44
905.572	-0.56
906.004	-2.56
906.435	-13.56
906.866	-0.56
907.298	11.44
907.729	5.44
908.16	13.44
908.591	-5.56
909.023	-10.56
909.454	-12.56
909.885	-6.56
910.316	0.44
910.747	-18.56
911.178	-5.56
911.609	14.44
912.04	2.44
912.471	-1.56
912.902	3.44
913.333	15.44
913.764	-7.56
914.195	-6.56
914.625	-7.56
915.056	-6.56
915.487	-8.56
915.918	-12.56
916.348	6.44
916.779	12.44
917.21	-9.56
917.64	-4.56
918.071	18.44
918.501	3.44
918.932	5.44
919.363	-0.56
919.793	-7.56
920.223	8.44
920.654	-6.56
921.084	-10.56
921.515	-8.56
921.945	-12.56
922.375	-20.56
922.806	7.44
923.236	-1.56
923.666	11.44
924.096	3.44
924.526	14.44
924.957	-4.56
925.387	-6.56
925.817	-16.56
926.247	-5.56
926.677	2.44
927.107	0.44
927.537	-17.56
927.967	12.44
928.397	-2.56
928.827	0.44
929.256	-3.56
929.686	9.44
930.116	-6.56
930.546	-13.56
930.976	3.44
931.405	-20.56
931.835	-0.56
932.265	1.44
932.694	10.44
933.124	0.44
933.553	-5.56
933.983	16.44
934.412	17.44
934.842	-1.56
935.271	2.44
935.701	-2.56
936.13	2.44
936.56	-15.56
936.989	-8.56
937.418	-2.56
937.848	-2.56
938.277	-20.56
938.706	-2.56
939.135	20.44
939.564	5.44
939.994	2.44
940.423	-3.56
940.852	13.44
941.281	-9.56
941.71	6.44
942.139	0.44
942.568	13.44
942.997	1.44
943.426	-20.56
943.855	10.44
944.283	-2.56
944.712	-8.56
945.141	-0.56
945.57	1.44
945.999	9.44
946.427	-0.56
946.856	6.44
947.285	1.44
947.713	-4.56
948.142	-6.56
948.57	-1.56
948.999	-19.56
949.427	-5.56
949.856	-9.56
950.284	1.44
950.713	-0.56
951.141	-20.56
951.57	-3.56
951.998	-0.56
952.426	-10.56
952.855	-15.56
953.283	-6.56
953.711	-2.56
954.139	-12.56
954.567	-16.56
954.996	-6.56
955.424	8.44
955.852	10.44
956.28	-9.56
956.708	1.44
957.136	-6.56
957.564	-11.56
957.992	1.44
958.42	9.44
958.848	4.44
959.275	-2.56
959.703	14.44
960.131	17.44
960.559	-8.56
960.987	-9.56
961.414	-1.56
961.842	-2.56
962.27	-5.56
962.697	-13.56
963.125	-7.56
963.552	-1.56
963.98	14.44
964.408	1.44
964.835	-2.56
965.262	2.44
965.69	1.44
966.117	5.44
966.545	12.44
966.972	1.44
967.399	3.44
967.827	5.44
968.254	11.44
968.681	-6.56
969.108	-5.56
969.535	11.44
969.963	-9.56
970.39	-2.56
970.817	-2.56
971.244	2.44
971.671	-4.56
972.098	-12.56
972.525	-3.56
972.952	-7.56
973.379	-9.56
973.806	-7.56
974.232	16.44
974.659	3.44
975.086	-9.56
975.513	2.44
975.94	1.44
976.366	6.44
976.793	-12.56
977.22	-7.56
977.646	9.44
978.073	2.44
978.499	-0.56
978.926	-4.56
979.352	11.44
979.779	1.44
980.205	-17.56
980.632	2.44
981.058	18.44
981.485	-16.56
981.911	-6.56
982.337	15.44
982.763	-7.56
983.19	-18.56
983.616	-6.56
984.042	-21.56
984.468	-26.56
984.894	-8.56
985.32	0.44
985.747	18.44
986.173	-11.56
986.599	10.44
987.025	9.44
987.451	-0.56
987.877	1.44
988.302	-9.56
988.728	2.44
989.154	-0.56
989.58	-10.56
990.006	-9.56
990.431	21.44
990.857	-22.56
991.283	-29.56
991.709	11.44
992.134	-4.56
992.56	-18.56
992.985	-7.56
993.411	5.44
993.836	-1.56
994.262	-5.56
994.687	-9.56
995.113	7.44
995.538	-19.56
995.964	0.44
996.389	-1.56
996.814	12.44
997.24	1.44
997.665	-6.56
998.09	-2.56
998.515	7.44
998.941	-6.56
999.366	2.44
999.791	5.44
1000.216	0.44
1000.641	-2.56
1001.066	-11.56
1001.491	-9.56
1001.916	2.44
1002.341	-20.56
1002.766	-8.56
1003.191	-6.56
1003.616	-18.56
1004.04	-15.56
1004.465	-5.56
1004.89	0.44
1005.315	0.44
1005.739	-10.56
1006.164	-7.56
1006.589	4.44
1007.013	-11.56
1007.438	2.44
1007.863	11.44
1008.287	0.44
1008.712	-11.56
1009.136	12.44
1009.561	0.44
1009.985	-2.56
1010.409	-14.56
1010.834	3.44
1011.258	-0.56
1011.682	-18.56
1012.107	-5.56
1012.531	9.44
1012.955	-7.56
1013.379	-5.56
1013.804	-15.56
1014.228	8.44
1014.652	-10.56
1015.076	-8.56
1015.5	-3.56
1015.924	7.44
1016.348	-5.56
1016.772	-24.56
1017.196	9.44
1017.62	4.44
1018.044	-4.56
1018.467	-1.56
1018.891	-8.56
1019.315	-22.56
1019.739	-2.56
1020.163	-9.56
1020.586	1.44
1021.01	-14.56
1021.434	-6.56
1021.857	7.44
1022.281	-14.56
1022.704	-9.56
1023.128	-17.56
1023.551	19.44
1023.975	6.44
1024.398	-8.56
1024.822	3.44
1025.245	-4.56
1025.668	-9.56
1026.092	-0.56
1026.515	1.44
1026.938	-3.56
1027.361	-12.56
1027.785	3.44
1028.208	9.44
1028.631	4.44
1029.054	-17.56
1029.477	-15.56
1029.9	5.44
1030.323	-13.56
1030.746	-9.56
1031.169	-4.56
1031.592	-4.56
1032.015	-30.56
1032.438	-14.56
1032.861	0.44
1033.284	14.44
1033.706	0.44
1034.129	3.44
1034.552	21.44
1034.975	3.44
1035.397	-9.56
1035.82	-10.56
1036.243	0.44
1036.665	13.44
1037.088	-7.56
1037.51	9.44
1037.933	14.44
1038.355	0.44
1038.778	-3.56
1039.2	-4.56
1039.622	-5.56
1040.045	-17.56
1040.467	10.44
1040.889	0.44
1041.312	11.44
1041.734	-6.56
1042.156	7.44
1042.578	5.44
1043	-0.56
1043.423	-10.56
1043.845	-6.56
1044.267	-6.56
1044.689	6.44
1045.111	1.44
1045.533	9.44
1045.955	12.44
1046.377	-11.56
1046.798	-7.56
1047.22	11.44
1047.642	5.44
1048.064	-6.56
1048.486	-8.56
1048.907	0.44
1049.329	-1.56
1049.751	-20.56
1050.172	4.44
1050.594	-10.56
1051.016	10.44
1051.437	-2.56
1051.859	-3.56
1052.28	13.44
1052.702	-21.56
1053.123	-13.56
1053.545	-6.56
1053.966	-11.56
1054.387	4.44
1054.809	-6.56
1055.23	12.44
1055.651	-2.56
1056.073	-29.56
1056.494	-7.56
1056.915	-14.56
1057.336	-10.56
1057.757	10.44
1058.178	2.44
1058.599	-10.56
1059.02	-4.56
1059.441	-26.56
1059.862	-2.56
1060.283	8.44
1060.704	-8.56
1061.125	-0.56
1061.546	-5.56
1061.967	-10.56
1062.388	-7.56
1062.808	-9.56
1063.229	-3.56
1063.65	-9.56
1064.07	1.44
1064.491	8.44
1064.912	2.44
1065.332	-8.56
1065.753	2.44
1066.173	-6.56
1066.594	-6.56
1067.014	-11.56
1067.435	-10.56
1067.855	15.44
1068.276	-9.56
1068.696	-30.56
1069.116	-3.56
1069.537	-2.56
1069.957	-7.56
1070.377	-9.56
1070.797	12.44
1071.218	3.44
1071.638	-9.56
1072.058	-4.56
1072.478	5.44
1072.898	-17.56
1073.318	-22.56
1073.738	-7.56
1074.158	19.44
1074.578	5.44
1074.998	-11.56
1075.418	17.44
1075.838	6.44
1076.257	-1.56
1076.677	-5.56
1077.097	-12.56
1077.517	-8.56
1077.936	-10.56
1078.356	-15.56
1078.776	-5.56
1079.195	11.44
1079.615	-7.56
1080.034	2.44
1080.454	17.44
1080.874	-4.56
1081.293	-4.56
1081.712	-3.56
1082.132	4.44
1082.551	-30.56
1082.971	-1.56
1083.39	81.44
1083.809	19.44
1084.228	-13.56
1084.648	-0.56
1085.067	4.44
1085.486	-5.56
1085.905	0.44
1086.324	-3.56
1086.743	-2.56
1087.162	-4.56
1087.581	-7.56
1088	1.44
1088.419	7.44
1088.838	-7.56
1089.257	-0.56
1089.676	-0.56
1090.095	-8.56
1090.514	-8.56
1090.933	-6.56
1091.351	-8.56
1091.77	-3.56
1092.189	-12.56
1092.607	0.44
1093.026	-10.56
1093.445	-8.56
1093.863	-14.56
1094.282	-14.56
1094.7	-1.56
1095.119	0.44
1095.537	-8.56
1095.956	-3.56
1096.374	-3.56
1096.793	-12.56
1097.211	-8.56
1097.629	14.44
1098.047	-6.56
1098.466	-8.56
1098.884	10.44
1099.302	-6.56
1099.72	-0.56
1100.138	-9.56
1100.557	-8.56
1100.975	9.44
1101.393	-1.56
1101.811	1.44
1102.229	10.44
